Power [kW]
0
0
0
0
0
0
0
0
0
0
50.698
188.554
397.513
556.106
660.245
711.441
687.231
579.216
430.325
296.245
179.135
69.011
11.839
0
0
0
0
0
0
0
0
0
0
0
135.591
341.672
587.271
623.169
656.758
702.699
672.896
521.316
424.228
351.724
228.534
99.227
18.501
0
0
0
0
0
0
0
0
0
0
0
338.86
574.306
600.438
640.422
657.614
593.691
541.558
435.433
315.736
207.816
126.766
64.473
19.309
0
0
0
0
0
0
0
0
0
0
0
67.375
230.028
457.356
713.202
837.924
879.945
888.572
860.319
792.298
708.365
591.325
528.929
376.348
0.112
0
0
0
0
0
0
0
0
0
5.697
807.455
900
900
900
900
900
900
900
889.99
872.709
840.085
772.128
531.761
1.02
0
0
0
0
0
0
0
0
0
5.632
839.101
900
900
900
900
900
900
900
900
900
900
854.683
653.762
3.154
0
0
0
0
0
0
0
0
0
10.931
900
900
900
900
900
900
900
900
900
900
900
855.961
661.66
3.439
0
0
0
0
0
0
0
0
0
10.631
900
900
900
900
900
900
900
900
900
900
900
841.645
649.677
2.721
0
0
0
0
0
0
0
0
0
10.981
900
900
900
900
900
900
900
900
900
900
900
854.625
651.728
2.478
0
0
0
0
0
0
0
0
0
11.685
900
900
900
900
900
900
900
900
900
900
900
840.026
619.608
1.417
0
0
0
0
0
0
0
0
0
3.226
792.932
900
900
900
900
900
900
900
900
900
890.23
828.562
612.506
1.121
0
0
0
0
0
0
0
0
0
12.064
900
900
900
900
900
900
900
900
900
900
900
841.814
625.148
1.035
0
0
0
0
0
0
0
0
0
7.948
900
900
900
900
900
900
900
900
900
900
880.517
811.871
593.45
0.502
0
0
0
0
0
0
0
0
0
12.406
900
900
900
900
900
900
900
899.646
874.099
834.692
793.368
712.544
474.85
0
0
0
0
0
0
0
0
0
0
31.498
900
900
900
900
900
900
900
900
889.842
860.038
818.313
716.733
426.609
0
0
0
0
0
0
0
0
0
0
0
824.214
900
900
900
900
900
900
875.26
839.252
791.492
746.453
637.346
363.158
0
0
0
0
0
0
0
0
0
0
0
783.422
900
900
900
900
900
900
880.678
841.833
802.242
739.893
631.056
378.232
0
0
0
0
0
0
0
0
0
0
0
98.036
276.981
522.399
692.359
739.46
797.609
834.297
840.847
827.831
792.358
734.657
616.594
376.963
0
0
0
0
0
0
0
0
0
0
0
661.147
870.24
900
900
900
895.293
848.453
794.042
722.451
643.124
511.171
354.569
141.456
0
0
0
0
0
0
0
0
0
0
0
862.826
900
900
900
900
900
900
891.255
857.23
801.344
710.623
597.344
369.151
0
0
0
0
0
0
0
0
0
0
0
855.608
900
900
900
900
900
899.18
879.973
845.368
722.223
560.421
218.354
34.984
0
0
0
0
0
0
0
0
0
0
0
332.13
644.933
819.779
884.487
900
899.582
891.159
877.328
858.523
702.763
543.918
281.814
153.111
0
0
0
0
0
0
0
0
0
0
0
844.138
900
900
900
900
900
900
895.841
883.33
840.552
681.71
396.626
169.365
0
0
0
0
0
0
0
0
0
0
0
787.282
900
900
900
900
900
900
898.731
856.695
777.788
609.244
367.066
112.086
0
0
0
0
0
0
0
0
0
0
0
289.948
633.924
738.468
754.734
761.777
743.209
697.894
662.671
571.455
486.39
354.826
195.354
35.91
0
0
0
0
0
0
0
0
0
0
0
683.034
900
900
900
900
900
872.085
836.134
784.39
628.418
386.828
171.218
29.472
0
0
0
0
0
0
0
0
0
0
0
338.705
750.231
876.122
877.142
817.881
744.747
646.33
567.976
473.596
361.586
231.64
112.639
21.963
0
0
0
0
0
0
0
0
0
0
0
341.888
642.206
874.728
900
879.891
817.534
757.731
681.181
625.829
519.1
420.533
238.329
54.071
0
0
0
0
0
0
0
0
0
0
0
297.524
667.698
825.97
824.149
794.688
728.373
615.587
508.175
364.744
253.257
161.661
71.698
10.318
0
0
0
0
0
0
0
0
0
0
0
21.218
140.738
391.036
647.648
768.649
812.148
811.237
750.472
659.693
480.308
272.323
101.492
15.549
0
0
0
0
0
0
0
0
0
0
0
11.523
71.405
213.197
471.184
656.779
683.931
596.253
482.262
367.174
265.221
166.791
88.957
14.942
0
0
0
0
0
0
0
0
0
0
0
103.086
550.342
852.054
900
900
900
869.284
810.32
737.841
624.09
474.9
303.239
98.171
0
0
0
0
0
0
0
0
0
0
0
20.199
98.497
222.661
376.024
480.089
497.987
480.791
422.249
344.956
261.152
191.18
91.73
15.585
0
0
0
0
0
0
0
0
0
0
0
136.614
478.312
784.666
857.205
796.411
751.572
710.237
671.849
545.372
382.656
208.209
77.265
10.049
0
0
0
0
0
0
0
0
0
0
0
27.6
144.211
322.63
486.171
601.966
618.888
625.31
619.317
572.499
448.086
285.726
128.113
19.49
0
0
0
0
0
0
0
0
0
0
0
559.418
900
900
900
900
900
891.106
846.658
755.092
600.617
388.881
175.113
32.45
0
0
0
0
0
0
0
0
0
0
0
575.519
867.5
881.806
898.728
900
897.977
864.138
823.468
753.845
598.825
288.601
105.069
21.181
0
0
0
0
0
0
0
0
0
0
0
73.551
214.507
357.036
544.581
705.157
754.843
757.812
690.402
544.54
376.703
211.813
79.074
11.689
0
0
0
0
0
0
0
0
0
0
0
111.714
570.106
790.162
814.547
782.962
730.292
582.999
417.38
307.281
232.65
146.42
57.754
7.583
0
0
0
0
0
0
0
0
0
0
0
322.176
447.692
318.751
326.078
376.602
421.494
475.745
514.36
503.754
402.615
218.582
79.362
12.515
0
0
0
0
0
0
0
0
0
0
0
88.761
391.797
758.092
870.528
874.591
824.562
771.821
721.341
654.709
544.626
399.548
220.337
69.547
0
0
0
0
0
0
0
0
0
0
0
511.36
851.166
833.66
813.404
812.707
789.035
767.549
727.87
691.551
625.826
481.147
275.476
72.895
0
0
0
0
0
0
0
0
0
0
0
424.658
900
900
900
875.267
724.365
613.686
486.451
375.142
288.545
179.352
80.359
18.822
0
0
0
0
0
0
0
0
0
0
0
437.121
754.327
755.561
739.949
688.825
708.215
744.7
788.925
813.32
829.032
736.47
383.091
49.962
0
0
0
0
0
0
0
0
0
0
0
691.802
900
900
900
900
900
900
900
900
884.197
843.088
744.226
438.353
0
0
0
0
0
0
0
0
0
0
0
523.033
900
900
900
900
900
900
888.883
870.799
848.366
814.67
710.694
388.197
0
0
0
0
0
0
0
0
0
0
0
523.408
900
900
900
900
900
900
900
895.704
874.729
831.795
726.58
402.65
0
0
0
0
0
0
0
0
0
0
0
564.976
900
900
900
900
900
900
900
884.792
834.398
708.495
481.592
135.476
0
0
0
0
0
0
0
0
0
0
0
571.81
900
900
900
900
900
900
900
900
873.504
803.286
577.579
124.248
0
0
0
0
0
0
0
0
0
0
0
622.732
900
900
900
900
900
900
900
900
874.743
826.347
708.839
400.609
0
0
0
0
0
0
0
0
0
0
0
578.907
900
900
900
900
900
900
900
894.535
875.124
832.743
729.126
398.087
0
0
0
0
0
0
0
0
0
0
0
564.657
900
900
900
900
900
900
900
884.892
843.282
772.634
641.974
302.377
0
0
0
0
0
0
0
0
0
0
0
389.487
863.797
900
900
900
900
900
891.685
873.393
847.497
757.604
594.077
267.828
0
0
0
0
0
0
0
0
0
0
0
470.348
900
900
900
900
900
900
874.624
826.139
747.492
685.024
574.179
258.976
0
0
0
0
0
0
0
0
0
0
0
495.445
900
900
900
900
900
900
900
899.247
879.052
839.807
729.774
386.449
0
0
0
0
0
0
0
0
0
0
0
520.417
900
900
900
900
900
900
900
900
900
856.669
744.571
392.71
0
0
0
0
0
0
0
0
0
0
0
516.405
900
900
900
900
900
900
900
900
897.657
857.146
745.773
386.41
0
0
0
0
0
0
0
0
0
0
0
515.087
900
900
900
900
900
900
900
887.536
858.941
799.607
626.282
225.939
0
0
0
0
0
0
0
0
0
0
0
495.552
900
900
900
900
900
900
900
900
893.157
841.513
692.229
248.111
0
0
0
0
0
0
0
0
0
0
0
473.513
900
900
900
900
900
900
900
900
898.286
843.702
682.783
250.116
0
0
0
0
0
0
0
0
0
0
0
392.336
819.451
824.56
900
900
900
900
900
875.858
841.47
810.231
691.947
315.892
0
0
0
0
0
0
0
0
0
0
0
394.181
900
900
900
900
900
900
900
900
887.524
846.671
730.256
332.217
0
0
0
0
0
0
0
0
0
0
0
412.836
900
900
900
900
900
900
900
900
897.128
854.712
742.158
339.701
0
0
0
0
0
0
0
0
0
0
0
386.365
900
900
900
900
900
900
900
900
893.469
852.43
741.315
330.58
0
0
0
0
0
0
0
0
0
0
0
387.249
900
900
900
900
900
900
900
900
893.41
851.51
737.986
312.361
0
0
0
0
0
0
0
0
0
0
0
375.792
900
900
900
900
900
900
900
898.8
872.863
819.034
679.409
242.132
0
0
0
0
0
0
0
0
0
0
0
313.263
580.409
690.893
831.974
900
900
900
900
871.056
818.61
732.574
572.156
211.068
0
0
0
0
0
0
0
0
0
0
0
276.381
900
900
900
900
900
900
900
899.758
881.74
839.899
729.21
264.831
0
0
0
0
0
0
0
0
0
0
0
285.505
900
900
900
900
900
900
900
900
891.029
847.122
726.95
249.972
0
0
0
0
0
0
0
0
0
0
0
307.61
900
900
900
900
900
900
900
900
900
865.665
746.085
251.331
0
0
0
0
0
0
0
0
0
0
0
315.358
900
900
900
900
900
900
900
900
900
872.3
757.365
255.304
0
0
0
0
0
0
0
0
0
0
0
318.002
900
900
900
900
900
900
900
900
900
876.89
759.848
241.347
0
0
0
0
0
0
0
0
0
0
0
315.132
900
900
900
900
900
900
900
900
900
887.096
772.732
240.95
0
0
0
0
0
0
0
0
0
0
0
295.244
900
900
900
900
900
900
900
900
900
887.56
774.467
231.512
0
0
0
0
0
0
0
0
0
0
0
285.218
900
900
900
900
900
900
900
900
900
890.075
776.054
220.903
0
0
0
0
0
0
0
0
0
0
0
265.646
900
900
900
900
900
900
900
900
900
879.497
765.063
205.202
0
0
0
0
0
0
0
0
0
0
0
242.422
900
900
900
900
900
900
900
900
899.519
853.97
730.358
169.223
0
0
0
0
0
0
0
0
0
0
0
93.616
744.095
884.695
900
900
900
900
900
900
894.809
843.358
692.852
117.364
0
0
0
0
0
0
0
0
0
0
0
216.047
900
900
900
900
900
900
900
900
900
874.05
757.064
167.476
0
0
0
0
0
0
0
0
0
0
0
206.74
900
900
900
900
900
900
900
900
900
876.201
761.228
162.689
0
0
0
0
0
0
0
0
0
0
0
200.433
900
900
900
900
900
900
900
900
900
859.307
736.4
138.397
0
0
0
0
0
0
0
0
0
0
0
161.805
900
900
900
900
900
900
900
900
900
864.651
748.9
137.301
0
0
0
0
0
0
0
0
0
0
0
172.855
900
900
900
900
900
900
900
900
867.308
823.334
690.765
101.564
0
0
0
0
0
0
0
0
0
0
0
129.105
895.778
900
900
900
900
900
900
900
896.625
856.635
730.481
107.338
0
0
0
0
0
0
0
0
0
0
0
127.686
899.457
900
900
900
900
900
900
900
878.446
819.052
691.596
80.994
0
0
0
0
0
0
0
0
0
0
0
49.782
701.078
867.44
879.43
888.585
892.405
899.893
900
900
895.904
860.554
738.362
96.092
0
0
0
0
0
0
0
0
0
0
0
108.627
885.522
900
900
900
900
900
900
897.361
848.701
738.085
494.704
20.836
0
0
0
0
0
0
0
0
0
0
0
30.553
567.816
713.435
701.04
643.791
630.065
611.951
552.242
456.434
380.056
349.143
172.721
2.583
0
0
0
0
0
0
0
0
0
0
0
38.919
644.515
786.124
835.247
863.464
862.343
848.806
817.475
742.355
624.443
435.775
185.67
3.351
0
0
0
0
0
0
0
0
0
0
0
69.834
824.391
900
900
900
900
900
892.445
872.117
848.34
805.077
669.401
52.367
0
0
0
0
0
0
0
0
0
0
0
69.289
834.351
900
900
900
900
900
899.057
884.98
843.624
800.68
669.809
49.909
0
0
0
0
0
0
0
0
0
0
0
64.006
833.372
900
900
900
900
900
900
880.949
827.427
738.56
563.158
25.486
0
0
0
0
0
0
0
0
0
0
0
4.198
342.883
674.627
828.784
826.546
785.423
669.233
604.746
544.046
428.548
267.586
154.336
2.442
0
0
0
0
0
0
0
0
0
0
0
15.919
580.832
852.091
900
900
900
900
900
886.13
806.228
733.471
573.798
23.258
0
0
0
0
0
0
0
0
0
0
0
4.3
347.811
759.958
879.037
900
900
900
900
900
895.081
826.54
681.228
36.807
0
0
0
0
0
0
0
0
0
0
0
64.293
900
900
900
900
900
900
900
900
900
900
785.022
47.642
0
0
0
0
0
0
0
0
0
0
0
58.125
895.539
900
900
900
900
900
900
900
900
882.845
767.447
40.443
0
0
0
0
0
0
0
0
0
0
0
46.57
864.087
900
900
900
900
900
900
900
900
869.677
748.074
33.226
0
0
0
0
0
0
0
0
0
0
0
43.46
871.809
900
900
900
900
900
900
900
900
893.907
782.038
33.237
0
0
0
0
0
0
0
0
0
0
0
33.374
839.88
900
900
900
900
900
900
900
900
881.267
759.406
24.893
0
0
0
0
0
0
0
0
0
0
0
26.76
816.963
900
900
900
900
900
900
900
900
893.067
773.192
23.085
0
0
0
0
0
0
0
0
0
0
0
31.988
867.306
900
900
900
900
900
900
900
900
900
802.707
22.199
0
0
0
0
0
0
0
0
0
0
0
30.153
882.308
900
900
900
900
900
900
900
900
900
812.021
21.555
0
0
0
0
0
0
0
0
0
0
0
24.496
860.49
900
900
900
900
900
900
900
900
900
796.121
16.958
0
0
0
0
0
0
0
0
0
0
0
19.306
829.662
900
900
900
900
900
900
900
900
900
794.17
14.638
0
0
0
0
0
0
0
0
0
0
0
1.546
508.097
849.696
900
900
900
900
895.532
882.906
844.264
738.19
461.882
1.885
0
0
0
0
0
0
0
0
0
0
0
0.663
533.394
832.562
900
898.38
892.951
881.894
835.403
785.097
759.662
669.836
406.867
0.532
0
0
0
0
0
0
0
0
0
0
0
2.936
733.198
879.909
900
900
900
900
900
900
900
865.082
738.624
5.152
0
0
0
0
0
0
0
0
0
0
0
3.046
720.062
892.035
900
900
900
900
900
900
900
900
783.571
5.409
0
0
0
0
0
0
0
0
0
0
0
3.211
770.403
900
900
900
900
900
900
900
900
896.228
786.479
4.406
0
0
0
0
0
0
0
0
0
0
0
4.699
789.981
900
900
900
900
900
900
900
900
900
790.098
3.099
0
0
0
0
0
0
0
0
0
0
0
3.532
784.468
900
900
900
900
900
900
900
900
900
781.735
1.776
0
0
0
0
0
0
0
0
0
0
0
1.477
745.877
888.285
900
900
900
900
900
900
900
882.324
746.576
0.367
0
0
0
0
0
0
0
0
0
0
0
0
680.339
856.753
900
900
900
900
900
900
900
873.221
734.654
0
0
0
0
0
0
0
0
0
0
0
0
0.683
768.675
900
900
900
900
900
900
900
900
888.591
755.823
0
0
0
0
0
0
0
0
0
0
0
0
0
734.399
886.481
900
900
900
900
900
900
870.357
795.911
593.491
0
0
0
0
0
0
0
0
0
0
0
0
0
778.556
900
900
900
900
900
900
900
900
900
812.585
0
0
0
0
0
0
0
0
0
0
0
0
0
755.669
898.489
900
900
900
900
900
900
900
898.517
800.725
0
0
0
0
0
0
0
0
0
0
0
0
0
752.509
898.062
900
900
900
900
900
900
900
897.641
783.662
0
0
0
0
0
0
0
0
0
0
0
0
0
586.901
829.31
900
900
900
900
900
900
900
882.696
733.363
0
0
0
0
0
0
0
0
0
0
0
0
0
699.629
876.487
900
900
900
900
900
900
900
888.906
762.684
0
0
0
0
0
0
0
0
0
0
0
0
0
701.339
883.458
900
900
900
900
900
900
900
885.573
755.837
0
0
0
0
0
0
0
0
0
0
0
0
0
691.411
867.404
900
900
900
900
900
900
900
863.434
725.956
0
0
0
0
0
0
0
0
0
0
0
0
0
676.202
872.586
900
900
900
900
900
900
900
866.09
591.734
0
0
0
0
0
0
0
0
0
0
0
0
0
663.207
856.54
900
900
857.685
824.737
801.471
833.548
871.522
834.874
671.541
0
0
0
0
0
0
0
0
0
0
0
0
0
648.311
846.888
892.7
900
900
900
900
886.573
859.302
813.132
599.012
0
0
0
0
0
0
0
0
0
0
0
0
0
269.682
487.369
689.733
808.376
857.983
874.971
868.165
841.148
750.968
551.741
177.003
0
0
0
0
0
0
0
0
0
0
0
0
0
490.338
783.296
815.471
854.564
878.396
883.265
815.42
694.167
580.698
289.333
25.839
0
0
0
0
0
0
0
0
0
0
0
0
0
555.082
807.058
870.769
891.702
900
900
900
883.061
848.941
772.913
521.439
0
0
0
0
0
0
0
0
0
0
0
0
0
529.123
753.733
863.858
885.523
893.581
890.609
881.444
866.186
800.917
629.662
324.292
0
0
0
0
0
0
0
0
0
0
0
0
0
649.406
886.795
900
900
900
900
900
900
900
900
771.713
0
0
0
0
0
0
0
0
0
0
0
0
0
720.174
900
900
900
900
900
900
900
900
900
799.884
0
0
0
0
0
0
0
0
0
0
0
0
0
708.264
900
900
900
900
900
900
900
900
900
755.01
0
0
0
0
0
0
0
0
0
0
0
0
0
633.788
856.557
900
900
900
900
900
900
900
879.511
713.117
0
0
0
0
0
0
0
0
0
0
0
0
0
662.89
876.414
900
900
900
900
900
900
900
900
731.643
0
0
0
0
0
0
0
0
0
0
0
0
0
669.992
882.092
900
900
900
900
900
900
900
896.765
707.607
0
0
0
0
0
0
0
0
0
0
0
0
0
696.408
885.211
900
900
900
900
900
900
900
900
726.03
0
0
0
0
0
0
0
0
0
0
0
0
0
673.902
864.977
900
900
900
900
900
888.907
824.046
696.717
357.054
0
0
0
0
0
0
0
0
0
0
0
0
0
500.897
793.049
882.617
900
900
900
892.231
878.683
861.938
788.303
511.399
0
0
0
0
0
0
0
0
0
0
0
0
0
639.463
853.995
900
900
900
900
900
900
900
887.428
623.002
0
0
0
0
0
0
0
0
0
0
0
0
0
692.5
887.507
900
900
900
900
900
900
855.169
730.742
422.251
0
0
0
0
0
0
0
0
0
0
0
0
0
676.411
877.851
900
900
900
900
900
900
900
900
652.255
0
0
0
0
0
0
0
0
0
0
0
0
0
709.15
900
900
900
900
900
900
900
900
900
690.08
0
0
0
0
0
0
0
0
0
0
0
0
0
720.191
900
900
900
900
900
900
900
900
900
683.213
0
0
0
0
0
0
0
0
0
0
0
0
0
664.207
817.8
881.154
900
900
900
900
900
900
889.536
632.388
0
0
0
0
0
0
0
0
0
0
0
0
0
603.725
846.391
900
900
868.823
867.026
859.234
816.897
767.721
620.153
298.635
0
0
0
0
0
0
0
0
0
0
0
0
0
295.011
518.329
676.849
709.335
769.741
834.495
812.233
731.16
690.921
480.269
213.74
0
0
0
0
0
0
0
0
0
0
0
0
0
576.746
834.679
900
900
900
900
900
900
900
857.08
554.633
0
0
0
0
0
0
0
0
0
0
0
0
0
594.375
848.592
900
900
900
900
900
900
900
863.403
554.992
0
0
0
0
0
0
0
0
0
0
0
0
0
593.707
859.533
900
900
900
900
900
900
900
876.846
566.313
0
0
0
0
0
0
0
0
0
0
0
0
0
604.486
869.118
900
900
900
900
900
900
900
877.406
562.772
0
0
0
0
0
0
0
0
0
0
0
0
0
592.674
864.887
900
900
900
900
900
900
900
877.078
554.018
0
0
0
0
0
0
0
0
0
0
0
0
0
606.151
890.238
900
900
900
900
900
900
900
889.861
583.53
0
0
0
0
0
0
0
0
0
0
0
0
0
557.128
864.002
900
900
900
900
900
900
900
885.648
578.641
0
0
0
0
0
0
0
0
0
0
0
0
0
573.15
862.352
900
900
900
900
900
900
895.112
850.66
536.376
0
0
0
0
0
0
0
0
0
0
0
0
0
564.535
854.135
900
900
900
900
900
894.506
876.273
835.084
529.504
0
0
0
0
0
0
0
0
0
0
0
0
0
561.402
859.921
900
900
900
900
900
900
900
850.997
529.306
0
0
0
0
0
0
0
0
0
0
0
0
0
567.418
868.414
900
900
900
900
900
900
900
855.594
533.505
0
0
0
0
0
0
0
0
0
0
0
0
0
539.326
859.413
900
900
900
900
900
900
900
844.397
481.957
0
0
0
0
0
0
0
0
0
0
0
0
0
534.227
854.041
809.207
684.704
643.44
780.885
878.572
883.889
853.016
709
137.116
0
0
0
0
0
0
0
0
0
0
0
0
0
358.187
769.357
878.315
897.527
891.269
884.978
896.494
900
877.675
808.862
501.072
0
0
0
0
0
0
0
0
0
0
0
0
0
526.408
858.826
900
900
900
900
900
900
849.881
732.434
334.579
0
0
0
0
0
0
0
0
0
0
0
0
0
526.533
864.583
900
900
900
900
900
900
900
841.505
492.475
0
0
0
0
0
0
0
0
0
0
0
0
0
476.29
816.768
893.096
900
892.352
889.632
885.431
863.418
794.654
593.376
206.632
0
0
0
0
0
0
0
0
0
0
0
0
0
462.603
764.973
758.329
767.409
763.573
721.934
624.303
568.872
462.015
261.795
40.304
0
0
0
0
0
0
0
0
0
0
0
0
0
13.318
76.702
162.94
262.469
341.055
354.672
307.057
227.612
136.426
52.381
6.027
0
0
0
0
0
0
0
0
0
0
0
0
0
486.937
854.641
900
900
900
900
900
899.469
866.256
784.82
307.288
0
0
0
0
0
0
0
0
0
0
0
0
0
506.846
867.332
900
900
900
900
900
900
900
838.517
486.32
0
0
0
0
0
0
0
0
0
0
0
0
0
565.365
900
900
900
900
900
900
900
900
854.907
516.443
0
0
0
0
0
0
0
0
0
0
0
0
0
522.855
880.5
900
900
900
900
900
900
882.669
826.302
488.802
0
0
0
0
0
0
0
0
0
0
0
0
0
524.994
880.349
900
900
900
900
900
900
886.238
830.832
499.922
0
0
0
0
0
0
0
0
0
0
0
0
0
521.625
877.231
900
900
900
900
900
900
878.094
812.343
474.499
0
0
0
0
0
0
0
0
0
0
0
0
0
513.43
874.778
900
900
900
900
900
899.744
873.715
811.982
479.593
0
0
0
0
0
0
0
0
0
0
0
0
0
529.386
889.253
900
900
900
900
900
900
878.813
818.071
491.979
0
0
0
0
0
0
0
0
0
0
0
0
0
522.979
884.109
900
900
900
900
900
900
890.407
816.268
465.079
0
0
0
0
0
0
0
0
0
0
0
0
0
474.613
857.438
900
900
839.529
813.752
771.739
716.183
629.13
480.66
138.652
0
0
0
0
0
0
0
0
0
0
0
0
0
542.547
900
900
900
900
900
900
900
900
836.713
498.189
0
0
0
0
0
0
0
0
0
0
0
0
0
531.878
900
900
900
900
900
900
900
899.893
824.936
487.308
0
0
0
0
0
0
0
0
0
0
0
0
0
505.232
885.309
900
900
900
900
900
900
883.359
799.334
452.963
0
0
0
0
0
0
0
0
0
0
0
0
0
402.814
812.735
900
900
900
900
900
900
874.715
793.541
455.905
0
0
0
0
0
0
0
0
0
0
0
0
0
502.642
878.703
900
900
900
900
896.927
873.258
826.475
695.755
318.963
0
0
0
0
0
0
0
0
0
0
0
0
0
399.227
796.842
864.533
888.746
897.739
899.723
897.126
885.527
805.425
665.431
327.341
0
0
0
0
0
0
0
0
0
0
0
0
0
370.118
751.168
880.291
900
900
900
891.109
863.545
802.402
670.265
253.073
0
0
0
0
0
0
0
0
0
0
0
0
0
550.896
900
900
900
900
900
900
900
890.361
815.157
506.89
0
0
0
0
0
0
0
0
0
0
0
0
0
540.987
900
900
900
900
900
900
896.683
862.707
769.379
430.064
0
0
0
0
0
0
0
0
0
0
0
0
0
584.474
900
900
900
900
900
900
900
887.318
789.481
372.036
0
0
0
0
0
0
0
0
0
0
0
0
0
530.697
900
900
900
900
900
900
887.69
828.642
682.389
317.923
0
0
0
0
0
0
0
0
0
0
0
0
0
541.805
889.699
900
900
900
900
900
895.267
814.953
537.983
162.819
0
0
0
0
0
0
0
0
0
0
0
0
0
527.728
880.307
900
900
900
900
900
896.463
866.203
788.84
510.403
0
0
0
0
0
0
0
0
0
0
0
0
0
549.776
893.932
900
900
900
900
900
896.426
864.663
783.191
502.895
0
0
0
0
0
0
0
0
0
0
0
0
0
539.372
884.462
900
900
900
900
900
898.363
868.916
788.565
509.488
0
0
0
0
0
0
0
0
0
0
0
0
0
559.017
895.527
900
900
900
900
900
900
873.806
790.567
516.785
0
0
0
0
0
0
0
0
0
0
0
0
0
566.811
900
900
900
900
900
900
900
869.557
776.075
476.111
0
0
0
0
0
0
0
0
0
0
0
0
0
575.947
900
900
900
900
900
900
900
857.891
762.155
489.067
0
0
0
0
0
0
0
0
0
0
0
0
0
559.828
900
900
900
900
900
900
900
889.718
808.735
546.154
0
0
0
0
0
0
0
0
0
0
0
0
0
588.11
891.412
900
900
900
900
900
900
873.214
775.651
484.727
0
0
0
0
0
0
0
0
0
0
0
0
0
614.933
900
900
900
900
900
900
900
889.773
771.271
497.937
0
0
0
0
0
0
0
0
0
0
0
0
0
613.472
900
900
894.03
879.932
887.8
879.575
877.89
854.49
743.737
412.971
0
0
0
0
0
0
0
0
0
0
0
0
0
649.214
900
900
900
900
900
900
900
891.453
813.489
563.532
0
0
0
0
0
0
0
0
0
0
0
0
0
678.108
900
900
900
900
900
900
900
892.063
815.8
565.848
0
0
0
0
0
0
0
0
0
0
0
0
0
666.957
900
900
900
900
900
900
900
889.92
815.471
570.594
0
0
0
0
0
0
0
0
0
0
0
0
0
680.336
900
900
900
900
900
900
900
860.412
820.864
579.135
0
0
0
0
0
0
0
0
0
0
0
0
0
607.194
900
900
900
900
900
900
885.509
821.846
704.821
411.94
0
0
0
0
0
0
0
0
0
0
0
0
0
666.685
900
900
900
900
900
900
900
900
821.097
554.668
0
0
0
0
0
0
0
0
0
0
0
0
0
615.851
889.997
900
900
900
900
900
900
899.27
827.528
541.311
0
0
0
0
0
0
0
0
0
0
0
0
0
747.152
900
900
900
900
900
900
900
900
880.243
640.603
0
0
0
0
0
0
0
0
0
0
0
0
0
777.536
900
900
900
900
900
900
900
900
840.397
609.885
0
0
0
0
0
0
0
0
0
0
0
0
0
745.07
900
900
900
900
900
900
900
896.651
830.353
607.594
0
0
0
0
0
0
0
0
0
0
0
0
0
762.911
900
900
900
900
900
900
900
900
851.708
621.302
0
0
0
0
0
0
0
0
0
0
0
0
0
780.761
900
900
900
900
900
900
900
900
842.766
622.218
0
0
0
0
0
0
0
0
0
0
0
0
0
793.492
900
900
900
900
900
900
900
881.047
814.664
593.862
0
0
0
0
0
0
0
0
0
0
0
0
0
785.661
900
900
900
900
900
900
900
893.367
829.317
619.992
0
0
0
0
0
0
0
0
0
0
0
0
0
795.16
900
900
900
900
900
900
900
900
834.978
612.32
0
0
0
0
0
0
0
0
0
0
0
0
0
837.197
900
900
900
900
900
900
900
900
860.526
632.402
0
0
0
0
0
0
0
0
0
0
0
0
0
882.45
900
900
900
900
900
900
900
900
843.051
618.185
0
0
0
0
0
0
0
0
0
0
0
0
0
870.448
900
900
900
900
900
900
900
900
847.462
634.507
0
0
0
0
0
0
0
0
0
0
0
0
0
885.595
900
900
900
900
900
900
900
900
847.601
641.164
0
0
0
0
0
0
0
0
0
0
0
0
0
893.805
900
900
900
900
900
900
900
900
853.093
644.766
0
0
0
0
0
0
0
0
0
0
0
0
0
870.62
900
900
900
900
900
900
900
900
840.197
621.938
0
0
0
0
0
0
0
0
0
0
0
0
0
850.398
900
900
900
900
900
900
900
878.227
790.713
487.405
0
0
0
0
0
0
0
0
0
0
0
0
0
862.952
900
900
900
900
900
900
900
900
873.635
661.431
0
0
0
0
0
0
0
0
0
0
0
0
0
900
900
900
900
900
900
900
900
900
880.33
688.506
0
0
0
0
0
0
0
0
0
0
0
0
0
877.023
900
900
900
900
900
900
900
900
854.543
642.216
0
0
0
0
0
0
0
0
0
0
0
0
0
888.815
900
900
900
900
900
900
900
900
753.721
334.851
0
0
0
0
0
0
0
0
0
0
0
0
3.849
887.121
900
900
900
900
900
900
900
900
833.642
564.982
0
0
0
0
0
0
0
0
0
0
0
0
0.379
873.11
900
900
900
900
900
900
900
900
835.764
590.79
0
0
0
0
0
0
0
0
0
0
0
0
0
679.014
850.488
900
900
900
900
900
900
881.396
821.761
626.62
0
0
0
0
0
0
0
0
0
0
0
0
0
803.032
900
900
900
900
900
900
900
898.345
841.396
649.573
0
0
0
0
0
0
0
0
0
0
0
0
0
790.867
899.259
900
900
900
900
900
847.537
742.766
528.775
205.8
0
0
0
0
0
0
0
0
0
0
0
0
0
678.233
862.643
900
900
900
890.122
845.356
796.68
705.817
564.358
322.474
0
0
0
0
0
0
0
0
0
0
0
0
1.285
847.317
900
900
900
900
900
900
900
900
864.128
696.05
0.052
0
0
0
0
0
0
0
0
0
0
0
2.269
854.55
900
900
900
900
900
900
900
900
865.515
711.923
0.874
0
0
0
0
0
0
0
0
0
0
0
3.511
854.067
900
900
900
900
900
900
900
900
875.241
728.33
1.879
0
0
0
0
0
0
0
0
0
0
0
4.842
852.89
900
900
900
900
900
900
900
900
873.089
732.835
3.014
0
0
0
0
0
0
0
0
0
0
0
4.266
815.143
900
900
900
900
900
900
900
893.703
843.903
681.225
2.131
0
0
0
0
0
0
0
0
0
0
0
6.806
834.328
900
900
900
900
900
900
900
900
867.177
706.934
3.165
0
0
0
0
0
0
0
0
0
0
0
6.101
799.811
900
900
900
900
900
900
900
900
874.841
719.51
4.761
0
0
0
0
0
0
0
0
0
0
0
9.797
825.458
900
900
900
900
900
900
900
900
871.379
735.795
7.536
0
0
0
0
0
0
0
0
0
0
0
12.621
829.757
900
900
900
900
900
900
900
900
851.495
692.85
7.205
0
0
0
0
0
0
0
0
0
0
0
14.275
823.283
900
900
900
900
900
900
900
900
865.337
729.846
9.713
0
0
0
0
0
0
0
0
0
0
0
18.498
837.461
900
900
900
900
900
900
900
900
874.563
747.128
13.111
0
0
0
0
0
0
0
0
0
0
0
23.771
848.227
900
900
900
900
900
900
900
900
900
788.065
19.424
0
0
0
0
0
0
0
0
0
0
0
26.112
841.543
900
900
900
900
900
900
900
900
900
799.993
21.952
0
0
0
0
0
0
0
0
0
0
0
27.114
821.881
900
900
900
900
900
900
900
900
900
804.825
25.662
0
0
0
0
0
0
0
0
0
0
0
33.071
833.126
900
900
900
900
900
900
900
900
900
796.762
28.113
0
0
0
0
0
0
0
0
0
0
0
21.67
769.352
900
900
900
900
900
900
900
900
870.979
752.943
21.406
0
0
0
0
0
0
0
0
0
0
0
28.361
765.415
895.293
900
900
900
900
900
900
897.092
847.618
688.635
17.502
0
0
0
0
0
0
0
0
0
0
0
19.12
683.389
855.394
900
900
891.294
874.781
854.38
842.229
851.879
861.121
769.522
31.579
0
0
0
0
0
0
0
0
0
0
0
35.119
752.13
884.918
895.151
900
900
900
899.797
880.749
843.064
785.554
629.266
15.345
0
0
0
0
0
0
0
0
0
0
0
38.986
759.562
883.261
900
900
900
900
900
898.085
867.135
799.674
645.195
20.954
0
0
0
0
0
0
0
0
0
0
0
3.809
224.089
455.335
589.402
730.402
668.075
660.268
626.722
611.946
676.631
686.809
602.352
19.258
0
0
0
0
0
0
0
0
0
0
0
69.282
818.14
900
900
900
900
900
900
900
900
900
851.177
64.108
0
0
0
0
0
0
0
0
0
0
0
78.595
826.074
900
900
900
900
900
900
900
900
900
862.386
70.366
0
0
0
0
0
0
0
0
0
0
0
83.11
822.133
900
900
900
900
900
900
900
900
900
867.147
76.617
0
0
0
0
0
0
0
0
0
0
0
87.661
812.608
900
900
900
900
900
900
900
900
900
824.602
64.54
0
0
0
0
0
0
0
0
0
0
0
77.567
764.957
891.223
900
900
900
900
900
900
900
900
824.522
74.574
0
0
0
0
0
0
0
0
0
0
0
99.388
798.438
900
900
900
900
900
900
900
900
900
853.92
90.031
0
0
0
0
0
0
0
0
0
0
0
108.778
805.067
900
900
900
900
900
900
900
900
900
862.253
100.296
0
0
0
0
0
0
0
0
0
0
0
112.788
788.6
897.777
900
900
900
900
900
900
900
900
825.514
90.653
0
0
0
0
0
0
0
0
0
0
0
97.537
735.912
866.878
900
900
900
900
900
900
900
900
878.022
118.781
0
0
0
0
0
0
0
0
0
0
0
149.058
819.21
900
900
900
900
900
900
900
900
900
900
141.349
0
0
0
0
0
0
0
0
0
0
0
159.122
823.867
900
900
900
900
900
900
900
900
900
900
151.381
0
0
0
0
0
0
0
0
0
0
0
147.73
792.605
900
900
900
900
900
900
900
900
900
900
145.625
0
0
0
0
0
0
0
0
0
0
0
136.592
751.422
874.459
900
900
900
900
900
900
900
900
830.896
110.127
0
0
0
0
0
0
0
0
0
0
0
101.359
671.078
818.368
870.875
888.516
895.816
899.753
900
879.938
837.596
742.103
407.191
12.725
0
0
0
0
0
0
0
0
0
0
0
130.425
709.707
843.247
885.877
899.367
900
900
900
900
900
892.281
798.116
82.407
0
0
0
0
0
0
0
0
0
0
0
145.297
717.925
844.936
883.856
897.986
900
900
900
900
900
900
816.433
114.155
0
0
0
0
0
0
0
0
0
0
0
185.872
766.923
883.31
900
900
900
900
900
900
900
900
890.783
180.476
0
0
0
0
0
0
0
0
0
0
0
189.838
758.06
875.245
900
900
900
900
900
900
900
900
864.538
168.863
0
0
0
0
0
0
0
0
0
0
0
189.838
744.108
864.28
900
900
900
900
900
900
900
900
893.139
200.204
0
0
0
0
0
0
0
0
0
0
0
247.116
794.529
894.668
900
900
900
900
900
900
900
900
900
218.211
0
0
0
0
0
0
0
0
0
0
0
234.229
769.104
877.832
900
900
900
900
900
900
900
900
900
234.188
0
0
0
0
0
0
0
0
0
0
0
241.102
768.31
881.053
900
900
900
900
900
900
900
900
900
213.842
0
0
0
0
0
0
0
0
0
0
0
195.694
721.227
855.845
900
900
900
900
876.399
833.206
826.386
827.511
809.105
166.035
0
0
0
0
0
0
0
0
0
0
0
265.198
769.856
889.364
900
900
900
900
900
900
900
900
900
264.115
0
0
0
0
0
0
0
0
0
0
0
268.963
766.574
891.793
900
900
900
900
900
900
900
900
900
252.138
0
0
0
0
0
0
0
0
0
0
0
305.494
787.009
900
900
900
900
900
900
900
900
900
900
246.853
0
0
0
0
0
0
0
0
0
0
0
302.48
797.926
900
900
900
900
900
900
900
900
900
900
321.334
0
0
0
0
0
0
0
0
0
0
0
351.179
810.441
900
900
900
900
900
900
900
900
900
900
346.389
0
0
0
0
0
0
0
0
0
0
0
364.369
797.445
900
900
900
900
900
900
900
900
900
900
356.01
0
0
0
0
0
0
0
0
0
0
0
378.057
796.789
897.452
900
900
900
900
900
900
900
900
900
362.198
0
0
0
0
0
0
0
0
0
0
0
391.773
790.187
887.071
900
900
900
900
900
900
900
900
900
336.308
0
0
0
0
0
0
0
0
0
0
0
420.218
801.026
894.755
900
900
900
900
900
900
900
900
900
379.988
0
0
0
0
0
0
0
0
0
0
0
361.916
747.952
856.627
893.07
900
900
900
884.861
843.185
741.147
658.912
589.432
193.215
0
0
0
0
0
0
0
0
0
0
0
371.229
749.274
859.458
897.769
900
900
900
900
900
882.754
855.575
898.804
348.069
0
0
0
0
0
0
0
0
0
0
0
359.738
739.444
849.509
887.457
900
877.836
875.401
863.334
900
900
865.746
719.002
221.14
0
0
0
0
0
0
0
0
0
0
0
393.95
766.794
877.194
900
900
900
900
900
900
900
900
900
430.654
0
0
0
0
0
0
0
0
0
0
0
423.645
781.52
883.985
900
900
900
900
900
900
900
900
900
456.829
0
0
0
0
0
0
0
0
0
0
0
425.896
783.359
885.887
900
900
900
900
900
900
900
900
900
458.899
0
0
0
0
0
0
0
0
0
0
0
434.179
791.402
895.616
900
900
900
900
900
900
900
900
900
508.512
0
0
0
0
0
0
0
0
0
0
0
311.434
711.494
845.749
894.428
900
900
900
900
900
900
900
797.466
224.306
0
0
0
0
0
0
0
0
0
0
0
148.584
393.643
537.434
556.115
527.103
523.6
558.072
684.706
792.487
811.011
781.235
739.346
309.759
0
0
0
0
0
0
0
0
0
0
0
441.691
798.496
900
900
900
900
900
900
900
900
900
900
556.675
0
0
0
0
0
0
0
0
0
0
0
474.32
809.509
900
900
900
900
900
900
900
900
900
900
568.063
0
0
0
0
0
0
0
0
0
0
0
474.881
807.705
899.77
900
900
900
900
900
900
900
900
900
570.881
0
0
0
0
0
0
0
0
0
0
0
478.037
808.345
900
900
900
900
900
900
900
900
900
900
606.655
0
0
0
0
0
0
0
0
0
0
0
484.469
810.342
900
900
900
900
900
900
900
900
900
900
630.969
0
0
0
0
0
0
0
0
0
0
0
493.624
814.491
898.95
900
900
900
900
900
900
900
900
900
649.408
0
0
0
0
0
0
0
0
0
0
0
490.41
809.998
899.68
900
900
900
900
900
900
900
900
900
665.985
0
0
0
0
0
0
0
0
0
0
0
497.712
810.824
894.753
900
900
900
900
900
900
900
900
900
651.247
0
0
0
0
0
0
0
0
0
0
0
487.082
799.384
884.744
900
900
900
900
900
900
900
900
900
649.294
0
0
0
0
0
0
0
0
0
0
0
476.635
807.196
892.716
900
900
900
900
900
900
900
900
900
547.787
0
0
0
0
0
0
0
0
0
0
0
426.437
757.132
846.492
835.26
821.321
796.73
781.07
784.124
781.396
694.898
487.137
233.403
45.857
0
0
0
0
0
0
0
0
0
0
0
223.625
635.422
790.685
841.769
856.811
850.621
813.623
811.643
820.54
833.326
813.533
809.202
484.403
0
0
0
0
0
0
0
0
0
0
0
370.515
707.725
822.089
864.952
883.507
881.934
866.709
814.515
764.029
692.159
604.74
507.505
229.138
0
0
0
0
0
0
0
0
0
0
0
388.164
720.255
827.46
867.401
879.745
882.906
870.238
805.751
739.849
615.091
383.813
217.217
62.92
0
0
0
0
0
0
0
0
0
0
0
381.192
718.987
825.264
854.318
861.66
874.552
870.838
873.128
890.756
900
900
900
549.317
0
0
0
0
0
0
0
0
0
0
0
450.291
786.276
885.123
900
900
900
900
900
900
900
900
900
715.835
0
0
0
0
0
0
0
0
0
0
0
349.084
738.365
861.459
900
900
900
900
900
900
900
900
900
645.056
0
0
0
0
0
0
0
0
0
0
0
477.186
801.991
888.575
900
900
900
900
900
900
900
900
884.956
609.215
0
0
0
0
0
0
0
0
0
0
0
499.904
806.427
887.186
900
900
900
900
900
900
900
900
900
719.474
0
0
0
0
0
0
0
0
0
0
0
467.041
773.393
857.006
893.288
900
900
900
900
900
900
900
900
776.552
0
0
0
0
0
0
0
0
0
0
0
529.974
817.587
893.907
900
900
900
900
900
900
900
900
900
747.323
0
0
0
0
0
0
0
0
0
0
0
431.288
746.201
817.986
842.744
857.531
875.042
867.016
839.266
826.898
799.925
719.361
438.141
120.583
0
0
0
0
0
0
0
0
0
0
0
243.25
704.595
843.697
885.559
860.816
806.178
738.869
638.658
533.804
430.673
286.384
133.204
31.721
0
0
0
0
0
0
0
0
0
0
0
80.332
301.363
530.787
662.379
718.173
753.764
800.998
801.117
786.317
712.428
656.417
563.941
406.026
0
0
0
0
0
0
0
0
0
0
0
519.57
809.385
891.509
900
900
900
900
900
900
900
900
900
845.488
0
0
0
0
0
0
0
0
0
0
0
530.354
813.529
889.937
900
900
900
900
900
900
900
900
900
820.867
0
0
0
0
0
0
0
0
0
0
0
425.069
777.816
862.995
896.496
900
900
900
896.513
826.714
773.399
737.008
654.841
470.337
0
0
0
0
0
0
0
0
0
0
0
308.36
616.546
727.486
773.402
789.13
753.276
677.563
639.695
566.168
419.385
339.937
241.09
158.929
0
0
0
0
0
0
0
0
0
0
0
114.715
417.01
674.439
805.958
849.411
862.912
862.577
847.426
822.701
787.679
754.69
695.793
577.849
0
0
0
0
0
0
0
0
0
0
0
491.895
778.517
860.049
889.905
900
900
900
890.56
751.935
641.104
456.433
368.021
299.176
0
0
0
0
0
0
0
0
0
0
0
344.676
689.585
792.392
818.737
814.113
828.898
837.156
829.326
792.353
757.458
663.456
547.97
391.486
0
0
0
0
0
0
0
0
0
0
0
501.135
784.59
866.066
899.534
900
900
900
900
900
900
900
900
863.1
0
0
0
0
0
0
0
0
0
0
0
538.883
802.178
879.447
900
900
900
900
900
900
900
900
900
876.943
0
0
0
0
0
0
0
0
0
0
0
536.954
802.025
877.228
900
900
900
900
900
900
866.985
847.002
811.378
699.673
0
0
0
0
0
0
0
0
0
0
0
449.762
723.505
839.223
889.595
900
900
900
900
900
886.32
836.085
757.45
650.909
0
0
0
0
0
0
0
0
0
0
0
557.421
809.881
883.624
900
900
900
900
900
900
900
900
900
900
0
0
0
0
0
0
0
0
0
0
0
581.553
828.877
899.653
900
900
900
900
900
900
900
900
900
900
0
0
0
0
0
0
0
0
0
0
0.677
637.021
861.171
900
900
900
900
900
900
900
900
900
900
900
0
0
0
0
0
0
0
0
0
0
2.035
672.713
880.585
900
900
900
900
900
900
900
900
900
900
900
0
0
0
0
0
0
0
0
0
0
1.645
647.106
866.807
900
900
900
900
900
900
900
900
900
900
900
0
0
0
0
0
0
0
0
0
0
2.324
664.108
876.173
900
900
900
900
900
900
900
900
900
900
900
0
0
0
0
0
0
0
0
0
0
3.51
674.528
876.957
900
900
900
900
900
900
900
900
900
900
900
0
0
0
0
0
0
0
0
0
0
0.412
515.355
793.919
888.492
900
900
900
900
900
882.367
836.697
803.848
627.96
262.675
0
0
0
0
0
0
0
0
0
0
1.93
616.724
839.489
900
900
900
900
900
900
900
900
900
900
900
41.408
0
0
0
0
0
0
0
0
0
5.175
685.133
884.057
900
900
900
900
900
900
900
900
900
900
900
16.409
0
0
0
0
0
0
0
0
0
4.979
684.844
885.065
900
900
900
900
900
900
900
900
900
900
761.66
6.05
0
0
0
0
0
0
0
0
0
5.735
692.328
888.259
900
900
900
900
900
900
900
900
900
847.661
624.415
3.812
0
0
0
0
0
0
0
0
0
4.547
648.409
861.964
900
900
900
900
900
900
900
900
900
844.622
688.046
4.541
0
0
0
0
0
0
0
0
0
3.992
611.059
829.077
900
900
900
900
900
900
900
900
900
900
859.545
7.668
0
0
0
0
0
0
0
0
0
2.036
656.166
900
900
900
900
900
900
900
900
900
900
900
894.023
9.811
0
0
0
0
0
0
0
0
0
5.095
598.533
823.193
900
900
900
900
900
900
900
900
900
900
868.187
9.137
0
0
0
0
0
0
0
0
0
9.19
721.699
900
900
900
900
900
900
900
900
900
900
900
877.549
10.288
0
0
0
0
0
0
0
0
0
10.21
732.887
900
900
900
900
900
900
900
900
900
900
900
827.388
7.742
0
0
0
0
0
0
0
0
0
7.083
671.236
854.452
900
900
900
900
900
887.831
866.118
726.415
601.744
502.754
480.522
1.771
0
0
0
0
0
0
0
0
0
3.711
610.141
847.291
900
900
900
900
900
900
900
886.353
839.123
792.683
660.849
4.501
0
0
0
0
0
0
0
0
0
4.439
634.791
841.484
900
900
900
900
900
900
900
900
900
900
794.407
7.962
0
0
0
0
0
0
0
0
0
13.452
762.76
900
900
900
900
900
900
900
900
900
900
900
816.656
10.295
0
0
0
0
0
0
0
0
0
12.905
753.505
900
900
900
900
900
900
900
900
900
900
900
808.998
9.845
0
0
0
0
0
0
0
0
0
14.669
770.535
900
900
900
900
900
900
900
900
900
900
900
789.889
9.469
0
0
0
0
0
0
0
0
0
11.743
753.369
900
900
900
900
900
900
900
900
900
900
900
781.482
9.227
0
0
0
0
0
0
0
0
0
11.43
744.171
898.516
900
900
900
900
900
900
900
900
900
888.108
769.612
9.52
0
0
0
0
0
0
0
0
0
15.676
795.426
900
900
900
900
900
900
900
900
900
900
895.436
776.159
10.454
0
0
0
0
0
0
0
0
0
13.392
770.591
900
900
900
900
900
900
900
900
900
900
900
785.533
10.957
0
0
0
0
0
0
0
0
0
15.091
795.647
900
900
900
900
900
900
900
900
900
900
878.386
735.682
8.852
0
0
0
0
0
0
0
0
0
7.653
700.383
872.242
900
900
892.531
881.138
865.344
810.546
740.539
546.789
406.173
301.283
182.03
0
0
0
0
0
0
0
0
0
0
2.789
563.059
833.77
900
900
900
896.861
881.136
807.11
763.521
662.397
527.762
410.982
242.05
0.209
0
0
0
0
0
0
0
0
0
9.859
763.598
900
900
900
900
900
900
886.297
734.332
717.997
692.509
794.366
631.731
4.915
0
0
0
0
0
0
0
0
0
10.181
742.57
895.689
900
900
900
900
900
900
900
868.687
806.493
748.959
533.896
2.862
0
0
0
0
0
0
0
0
0
0.868
249.132
493.8
747.246
877.575
892.52
864.833
853.951
781.918
687.446
534.383
415.169
213.012
58.846
0
0
0
0
0
0
0
0
0
0
0
313.872
738.769
869.079
841.262
765.615
698.268
618.42
501.967
382.738
273.302
183.669
91.057
22.141
0
0
0
0
0
0
0
0
0
0
0.341
251.773
470.845
665.862
743.871
731.545
698.285
677.174
622.792
590.158
518.574
418.17
343.232
208.028
0
0
0
0
0
0
0
0
0
0
10.304
817.586
900
900
900
900
900
900
897.592
872.592
876.936
869.197
820.702
618.823
3.115
0
0
0
0
0
0
0
0
0
6.498
735.028
890.647
900
900
900
900
900
854.681
783.541
657.698
560.787
503.816
317.865
0.551